Coaxial Probe Method (Opt. 004) 20.0.22083101
Keysight Technologies,P9371A,MY57211751,A.17.25.05

Ch 1
Port:, 1
Probe:, High temperature
Std1:, Air
Std2:, Short
Std3:, 25.0C water
IFBW:, 300.000000 Hz
Power:, -5.000000 dBm
Date:,"Saturday, July 06, 2024 16:16:51"
frequency(Hz),e',e''
3e+008,44.9102,27.193
3.01e+008,44.8699,27.1623
3.02e+008,44.8245,27.1225
3.03e+008,44.7801,27.086
3.04e+008,44.7411,27.0501
3.05e+008,44.698,27.018
3.06e+008,44.6532,26.9909
3.07e+008,44.6088,26.9802
3.08e+008,44.5628,26.9552
3.09e+008,44.5209,26.9294
3.1e+008,44.4712,26.9042
3.11e+008,44.4263,26.8932
3.12e+008,44.3716,26.8792
3.13e+008,44.3712,26.7661
3.14e+008,44.3319,26.7232
3.15e+008,44.2935,26.6932
3.16e+008,44.2383,26.6665
3.17e+008,44.2034,26.6432
3.18e+008,44.16,26.6064
3.19e+008,44.1091,26.5942
3.2e+008,44.057,26.5752
3.21e+008,44.0175,26.5514
3.22e+008,43.9645,26.5262
3.23e+008,43.9231,26.5134
3.24e+008,43.8714,26.4939
3.25e+008,43.823,26.4812
3.26e+008,43.7694,26.4669
3.27e+008,43.7186,26.448
3.28e+008,43.6632,26.4401
3.29e+008,43.6224,26.4105
3.3e+008,43.5715,26.3936
3.31e+008,43.5135,26.388
3.32e+008,43.458,26.387
3.33e+008,43.4097,26.3759
3.34e+008,43.3552,26.3504
3.35e+008,43.314,26.3314
3.36e+008,43.2588,26.322
3.37e+008,43.2112,26.2836
3.38e+008,43.1609,26.2822
3.39e+008,43.1091,26.2776
3.4e+008,43.0508,26.2776
3.41e+008,42.9998,26.2516
3.42e+008,42.9509,26.2302
3.43e+008,42.9079,26.2099
3.44e+008,42.8634,26.1808
3.45e+008,42.8243,26.1573
3.46e+008,42.7736,26.1269
3.47e+008,42.7226,26.1028
3.48e+008,42.6777,26.0869
3.49e+008,42.6199,26.0834
3.5e+008,42.5702,26.0672
3.51e+008,42.5283,26.0466
3.52e+008,42.4712,26.049
3.53e+008,42.4211,26.0359
3.54e+008,42.3661,26.0132
3.55e+008,42.32,25.9992
3.56e+008,42.2747,25.9798
3.57e+008,42.2258,25.9694
3.58e+008,42.1609,25.9667
3.59e+008,42.1118,25.9607
3.6e+008,42.0644,25.9532
3.61e+008,42.003,25.9461
3.62e+008,41.9536,25.9315
3.63e+008,41.8889,25.9394
3.64e+008,41.8418,25.9275
3.65e+008,41.7856,25.9181
3.66e+008,41.7384,25.9052
3.67e+008,41.6853,25.9065
3.68e+008,41.6333,25.8939
3.69e+008,41.5841,25.8681
3.7e+008,41.5294,25.859
3.71e+008,41.4832,25.8399
3.72e+008,41.4452,25.8156
3.73e+008,41.3969,25.8056
3.74e+008,41.3444,25.7958
3.75e+008,41.2985,25.7809
3.76e+008,41.2599,25.7433
3.77e+008,41.2148,25.7288
3.78e+008,41.165,25.7268
3.79e+008,41.0919,25.7472
3.8e+008,41.0371,25.7405
3.81e+008,40.9811,25.7504
3.82e+008,40.9235,25.7415
3.83e+008,40.8698,25.7495
3.84e+008,40.8117,25.7663
3.85e+008,40.7464,25.764
3.86e+008,40.7008,25.7547
3.87e+008,40.6532,25.7497
3.88e+008,40.602,25.7366
3.89e+008,40.5535,25.7229
3.9e+008,40.5045,25.7348
3.91e+008,40.4384,25.7422
3.92e+008,40.3784,25.7419
3.93e+008,40.328,25.7471
3.94e+008,40.2652,25.7469
3.95e+008,40.215,25.7504
3.96e+008,40.1717,25.7395
3.97e+008,40.1288,25.7254
3.98e+008,40.0852,25.7129
3.99e+008,40.0511,25.6953
4e+008,40.0206,25.6743
4.01e+008,39.982,25.6564
4.02e+008,39.947,25.6483
4.03e+008,39.9034,25.6304
4.04e+008,39.8695,25.6194
4.05e+008,39.8252,25.6249
4.06e+008,39.7923,25.6019
4.07e+008,39.7594,25.5813
4.08e+008,39.7347,25.5571
4.09e+008,39.7162,25.5261
4.1e+008,39.6799,25.5139
4.11e+008,39.644,25.5059
4.12e+008,39.6117,25.4996
4.13e+008,39.5856,25.4784
4.14e+008,39.5557,25.4651
4.15e+008,39.5173,25.4669
4.16e+008,39.4865,25.4571
4.17e+008,39.4714,25.4363
4.18e+008,39.4789,25.3903
4.19e+008,39.4903,25.3406
4.2e+008,39.4888,25.3055
4.21e+008,39.4845,25.2698
4.22e+008,39.4677,25.2516
4.23e+008,39.4704,25.2134
4.24e+008,39.4655,25.1818
4.25e+008,39.4684,25.1503
4.26e+008,39.482,25.1068
4.27e+008,39.4834,25.0648
4.28e+008,39.4962,25.019
4.29e+008,39.502,24.9744
4.3e+008,39.5235,24.9195
4.31e+008,39.5341,24.8762
4.32e+008,39.55,24.8224
4.33e+008,39.557,24.7885
4.34e+008,39.5671,24.7435
4.35e+008,39.5734,24.7108
4.36e+008,39.5786,24.6667
4.37e+008,39.5827,24.6324
4.38e+008,39.5834,24.5997
4.39e+008,39.6022,24.5554
4.4e+008,39.5992,24.5321
4.41e+008,39.6052,24.4927
4.42e+008,39.6075,24.4667
4.43e+008,39.6043,24.436
4.44e+008,39.6019,24.4153
4.45e+008,39.5898,24.3977
4.46e+008,39.5713,24.3947
4.47e+008,39.5573,24.3852
4.48e+008,39.5458,24.3594
4.49e+008,39.5305,24.3506
4.5e+008,39.5169,24.3442
4.51e+008,39.4977,24.3343
4.52e+008,39.4928,24.3167
4.53e+008,39.4721,24.2998
4.54e+008,39.4678,24.2857
4.55e+008,39.4578,24.2645
4.56e+008,39.4601,24.2275
4.57e+008,39.443,24.213
4.58e+008,39.4152,24.2074
4.59e+008,39.399,24.1944
4.6e+008,39.3767,24.1865
4.61e+008,39.3488,24.1803
4.62e+008,39.3184,24.1867
4.63e+008,39.2949,24.1783
4.64e+008,39.2682,24.1747
4.65e+008,39.2303,24.1732
4.66e+008,39.2066,24.1631
4.67e+008,39.1986,24.1258
4.68e+008,39.1773,24.1199
4.69e+008,39.1546,24.1095
4.7e+008,39.1275,24.0917
4.71e+008,39.0962,24.0835
4.72e+008,39.0616,24.091
4.73e+008,39.0233,24.0986
4.74e+008,38.9933,24.0847
4.75e+008,38.9602,24.0807
4.76e+008,38.9242,24.0772
4.77e+008,38.8856,24.079
4.78e+008,38.842,24.0813
4.79e+008,38.813,24.0805
4.8e+008,38.7654,24.0744
4.81e+008,38.7233,24.0743
4.82e+008,38.7106,24.0338
4.83e+008,38.6754,24.0324
4.84e+008,38.6232,24.0395
4.85e+008,38.5807,24.041
4.86e+008,38.546,24.0274
4.87e+008,38.5068,24.0227
4.88e+008,38.4794,24.0035
4.89e+008,38.4366,23.9986
4.9e+008,38.3899,24.0022
4.91e+008,38.3475,23.9955
4.92e+008,38.3105,23.9901
4.93e+008,38.2676,23.9942
4.94e+008,38.2373,23.9811
4.95e+008,38.1904,23.9805
4.96e+008,38.1412,23.9915
4.97e+008,38.1012,23.9794
4.98e+008,38.0531,23.9853
4.99e+008,38.0124,23.9789
5e+008,37.9662,23.9778

