Coaxial Probe Method (Opt. 004) 20.0.22083101
Keysight Technologies,P9371A,MY57211751,A.17.25.05

Ch 1
Port:, 1
Probe:, High temperature
Std1:, Air
Std2:, Short
Std3:, 25.0C water
IFBW:, 300.000000 Hz
Power:, -5.000000 dBm
Date:,"Saturday, July 06, 2024 16:55:24"
frequency(Hz),e',e''
3e+008,28.2165,19.9756
3.01e+008,28.202,19.9443
3.02e+008,28.1741,19.9125
3.03e+008,28.1632,19.8829
3.04e+008,28.1296,19.859
3.05e+008,28.1105,19.8259
3.06e+008,28.0807,19.8024
3.07e+008,28.0491,19.7911
3.08e+008,28.0199,19.7714
3.09e+008,27.9966,19.7503
3.1e+008,27.9674,19.7341
3.11e+008,27.9374,19.7246
3.12e+008,27.9028,19.7046
3.13e+008,27.9309,19.6338
3.14e+008,27.917,19.603
3.15e+008,27.8967,19.5778
3.16e+008,27.8613,19.5573
3.17e+008,27.8435,19.5358
3.18e+008,27.8159,19.5117
3.19e+008,27.7768,19.5029
3.2e+008,27.7494,19.4824
3.21e+008,27.7243,19.4631
3.22e+008,27.6986,19.4422
3.23e+008,27.6632,19.4295
3.24e+008,27.6333,19.4178
3.25e+008,27.5968,19.4007
3.26e+008,27.5496,19.3892
3.27e+008,27.5282,19.378
3.28e+008,27.4897,19.3673
3.29e+008,27.4583,19.343
3.3e+008,27.4263,19.3322
3.31e+008,27.3829,19.3171
3.32e+008,27.3364,19.3152
3.33e+008,27.3044,19.3077
3.34e+008,27.2731,19.2843
3.35e+008,27.2343,19.2697
3.36e+008,27.1964,19.2609
3.37e+008,27.1649,19.2313
3.38e+008,27.127,19.2326
3.39e+008,27.0847,19.222
3.4e+008,27.0347,19.216
3.41e+008,26.9968,19.2005
3.42e+008,26.9606,19.1798
3.43e+008,26.9362,19.1553
3.44e+008,26.905,19.1359
3.45e+008,26.8742,19.1229
3.46e+008,26.8418,19.098
3.47e+008,26.8071,19.0833
3.48e+008,26.7689,19.0642
3.49e+008,26.7218,19.0537
3.5e+008,26.6791,19.0443
3.51e+008,26.643,19.0246
3.52e+008,26.5952,19.0197
3.53e+008,26.5523,19.0062
3.54e+008,26.5192,18.9808
3.55e+008,26.4774,18.9788
3.56e+008,26.4351,18.9557
3.57e+008,26.3971,18.9414
3.58e+008,26.3442,18.9343
3.59e+008,26.299,18.9265
3.6e+008,26.2506,18.9136
3.61e+008,26.2045,18.8987
3.62e+008,26.1552,18.8846
3.63e+008,26.1048,18.8778
3.64e+008,26.0596,18.8704
3.65e+008,26.019,18.8542
3.66e+008,25.9701,18.8404
3.67e+008,25.9221,18.8289
3.68e+008,25.8663,18.8113
3.69e+008,25.8368,18.7952
3.7e+008,25.7882,18.7698
3.71e+008,25.7507,18.7506
3.72e+008,25.7164,18.7341
3.73e+008,25.6674,18.7173
3.74e+008,25.6265,18.706
3.75e+008,25.5862,18.6875
3.76e+008,25.5616,18.6519
3.77e+008,25.5191,18.6329
3.78e+008,25.466,18.6284
3.79e+008,25.4038,18.6314
3.8e+008,25.3527,18.6074
3.81e+008,25.2953,18.6032
3.82e+008,25.2413,18.5937
3.83e+008,25.191,18.5911
3.84e+008,25.1337,18.5825
3.85e+008,25.0764,18.5778
3.86e+008,25.0354,18.5564
3.87e+008,24.9936,18.5441
3.88e+008,24.9477,18.5307
3.89e+008,24.9051,18.5122
3.9e+008,24.856,18.5019
3.91e+008,24.7996,18.5021
3.92e+008,24.7478,18.4875
3.93e+008,24.6973,18.4776
3.94e+008,24.6456,18.4685
3.95e+008,24.5942,18.4589
3.96e+008,24.5619,18.4416
3.97e+008,24.5258,18.4275
3.98e+008,24.4904,18.4058
3.99e+008,24.4589,18.3843
4e+008,24.4368,18.3663
4.01e+008,24.4108,18.3397
4.02e+008,24.3724,18.3326
4.03e+008,24.343,18.3123
4.04e+008,24.3088,18.2992
4.05e+008,24.269,18.2897
4.06e+008,24.2485,18.2673
4.07e+008,24.2268,18.2496
4.08e+008,24.2042,18.2283
4.09e+008,24.191,18.2017
4.1e+008,24.1673,18.1895
4.11e+008,24.1459,18.1733
4.12e+008,24.1147,18.1639
4.13e+008,24.0965,18.1469
4.14e+008,24.0739,18.1276
4.15e+008,24.0404,18.1241
4.16e+008,24.0127,18.1125
4.17e+008,24.0098,18.0938
4.18e+008,24.0269,18.0643
4.19e+008,24.0447,18.0301
4.2e+008,24.0445,18.0115
4.21e+008,24.0506,17.9901
4.22e+008,24.0416,17.9696
4.23e+008,24.048,17.9543
4.24e+008,24.0576,17.9298
4.25e+008,24.0647,17.9085
4.26e+008,24.0839,17.8827
4.27e+008,24.095,17.8581
4.28e+008,24.1112,17.8298
4.29e+008,24.1278,17.8099
4.3e+008,24.1609,17.7735
4.31e+008,24.1798,17.7529
4.32e+008,24.2073,17.7152
4.33e+008,24.2187,17.6914
4.34e+008,24.238,17.6699
4.35e+008,24.2485,17.6508
4.36e+008,24.2636,17.6246
4.37e+008,24.2785,17.6043
4.38e+008,24.2891,17.5853
4.39e+008,24.3156,17.5618
4.4e+008,24.3174,17.5464
4.41e+008,24.3298,17.5238
4.42e+008,24.3461,17.5102
4.43e+008,24.3522,17.4933
4.44e+008,24.3481,17.4815
4.45e+008,24.3499,17.471
4.46e+008,24.3386,17.4642
4.47e+008,24.325,17.4601
4.48e+008,24.3248,17.4519
4.49e+008,24.3153,17.44
4.5e+008,24.3087,17.439
4.51e+008,24.2999,17.4327
4.52e+008,24.3005,17.4225
4.53e+008,24.2913,17.4093
4.54e+008,24.2881,17.4026
4.55e+008,24.2868,17.3815
4.56e+008,24.3042,17.3646
4.57e+008,24.2887,17.3595
4.58e+008,24.2723,17.3519
4.59e+008,24.2631,17.3425
4.6e+008,24.2444,17.3362
4.61e+008,24.225,17.333
4.62e+008,24.2033,17.3314
4.63e+008,24.1819,17.3295
4.64e+008,24.1661,17.3212
4.65e+008,24.1377,17.3213
4.66e+008,24.1219,17.3108
4.67e+008,24.1248,17.2888
4.68e+008,24.1066,17.281
4.69e+008,24.0969,17.2718
4.7e+008,24.0787,17.256
4.71e+008,24.0499,17.2475
4.72e+008,24.0196,17.2464
4.73e+008,23.9895,17.247
4.74e+008,23.9703,17.2403
4.75e+008,23.9452,17.2288
4.76e+008,23.9143,17.223
4.77e+008,23.8847,17.2178
4.78e+008,23.851,17.2119
4.79e+008,23.8224,17.2033
4.8e+008,23.7888,17.1989
4.81e+008,23.7524,17.1907
4.82e+008,23.748,17.1668
4.83e+008,23.7216,17.1543
4.84e+008,23.677,17.1538
4.85e+008,23.6434,17.1491
4.86e+008,23.6175,17.1288
4.87e+008,23.5819,17.1188
4.88e+008,23.5622,17.1064
4.89e+008,23.5236,17.0912
4.9e+008,23.4894,17.093
4.91e+008,23.455,17.0761
4.92e+008,23.42,17.0683
4.93e+008,23.3824,17.059
4.94e+008,23.3587,17.0469
4.95e+008,23.3166,17.0382
4.96e+008,23.2782,17.0322
4.97e+008,23.2457,17.0166
4.98e+008,23.2025,17.0137
4.99e+008,23.1634,17.0001
5e+008,23.1272,16.9942

